ian;mo;jo;jul;tcult;tmin(n);tcultmax;tcultmin;tmoy(n);tmax(n)
1996; 4;21;112;    17.69542;    10.30000;    25.09083;    10.30000;    16.80000;    23.30000
1996; 4;22;113;    17.48588;    10.00000;    24.97176;    10.00000;    16.60000;    23.20000
1996; 4;23;114;    14.67165;    10.10000;    19.24329;    10.10000;    12.55000;    15.00000
1996; 4;24;115;    13.80284;     5.60000;    22.00567;     5.60000;    10.45000;    15.30000
1996; 4;25;116;    13.31844;     4.50000;    22.13689;     4.50000;    10.05000;    15.60000
1996; 4;26;117;    13.99765;     3.10000;    24.89529;     3.10000;    10.50000;    17.90000
1996; 4;27;118;    15.00717;     6.40000;    23.61435;     6.40000;    13.05000;    19.70000
1996; 4;28;119;    15.42901;     9.40000;    21.45801;     9.40000;    14.70000;    20.00000
1996; 4;29;120;    16.48512;     8.90000;    24.07024;     8.90000;    13.10000;    17.30000
1996; 4;30;121;    10.40360;     3.30000;    17.50720;     3.30000;     9.70000;    16.10000
1996; 5; 1;122;    10.60215;     5.10000;    16.10431;     5.10000;     9.50000;    13.90000
1996; 5; 2;123;    11.25379;     6.90000;    15.60758;     6.90000;     9.90000;    12.90000
1996; 5; 3;124;    11.37587;     8.20000;    14.55173;     8.20000;    10.95000;    13.70000
1996; 5; 4;125;    12.23745;     3.40000;    21.07490;     3.40000;     9.50000;    15.60000
1996; 5; 5;126;    14.77478;     2.70000;    26.84957;     2.70000;    11.10000;    19.50000
1996; 5; 6;127;    17.11570;     6.40000;    27.83140;     6.40000;    14.25000;    22.10000
1996; 5; 7;128;    13.90950;     7.30000;    20.51901;     7.30000;    12.70000;    18.10000
1996; 5; 8;129;    17.23180;    12.40000;    22.06360;    12.40000;    16.10000;    19.80000
1996; 5; 9;130;    11.98444;     7.20000;    16.76888;     7.20000;    10.15000;    13.10000
1996; 5;10;131;    12.61981;     4.30000;    20.93962;     4.30000;     8.85000;    13.40000
1996; 5;11;132;    11.99014;     3.90000;    20.08027;     3.90000;     9.20000;    14.50000
1996; 5;12;133;    11.08861;     4.40000;    17.77723;     4.40000;     9.60000;    14.80000
1996; 5;13;134;    11.32375;     4.70000;    17.94751;     4.70000;     9.20000;    13.70000
1996; 5;14;135;    15.40592;     7.50000;    23.31184;     7.50000;    11.70000;    15.90000
1996; 5;15;136;    14.27638;     8.70000;    19.85277;     8.70000;    11.55000;    14.40000
1996; 5;16;137;    17.09473;     9.00000;    25.18946;     9.00000;    14.90000;    20.80000
1996; 5;17;138;    17.13722;     9.50000;    24.77445;     9.50000;    14.85000;    20.20000
1996; 5;18;139;    18.19952;    11.60000;    24.79905;    11.60000;    16.50000;    21.40000
1996; 5;19;140;    14.99919;     8.20000;    21.79837;     8.20000;    11.70000;    15.20000
1996; 5;20;141;    10.52782;     2.50000;    18.55563;     2.50000;     9.35000;    16.20000
1996; 5;21;142;    13.52608;     4.20000;    22.85215;     4.20000;    10.25000;    16.30000
1996; 5;22;143;    13.92859;     4.00000;    23.85718;     4.00000;    11.00000;    18.00000
1996; 5;23;144;    15.40822;    11.20000;    19.61645;    11.20000;    14.80000;    18.40000
1996; 5;24;145;    20.52604;     9.50000;    31.55208;     9.50000;    17.00000;    24.50000
1996; 5;25;146;    13.05000;    11.50000;    14.60000;    11.50000;    13.05000;    14.60000
1996; 5;26;147;    14.91725;    12.70000;    17.13450;    12.70000;    14.25000;    15.80000
1996; 5;27;148;    13.59567;    11.60000;    15.59135;    11.60000;    13.20000;    14.80000
1996; 5;28;149;    16.53042;     7.20000;    25.86085;     7.20000;    13.85000;    20.50000
1996; 5;29;150;    21.07981;     8.60000;    33.55962;     8.60000;    16.35000;    24.10000
1996; 5;30;151;    23.82917;    10.10000;    37.55835;    10.10000;    19.55000;    29.00000
1996; 5;31;152;    17.27932;    13.60000;    20.95863;    13.60000;    16.60000;    19.60000
1996; 6; 1;153;    14.56874;     7.20000;    21.93748;     7.20000;    12.30000;    17.40000
1996; 6; 2;154;    17.17394;     8.50000;    25.84789;     8.50000;    13.40000;    18.30000
1996; 6; 3;155;    19.75107;     8.60000;    30.90214;     8.60000;    15.25000;    21.90000
1996; 6; 4;156;    21.07848;     8.60000;    33.55697;     8.60000;    16.45000;    24.30000
1996; 6; 5;157;    24.38773;    11.90000;    36.87546;    11.90000;    20.15000;    28.40000
1996; 6; 6;158;    26.14735;    13.80000;    38.49470;    13.80000;    22.55000;    31.30000
1996; 6; 7;159;    25.64200;    16.10000;    35.18400;    16.10000;    23.45000;    30.80000
1996; 6; 8;160;    21.31145;    15.50000;    27.12289;    15.50000;    19.30000;    23.10000
1996; 6; 9;161;    22.55323;    12.90000;    32.20646;    12.90000;    19.80000;    26.70000
1996; 6;10;162;    23.15228;    14.30000;    32.00457;    14.30000;    20.90000;    27.50000
1996; 6;11;163;    23.11197;    13.70000;    32.52393;    13.70000;    21.05000;    28.40000
1996; 6;12;164;    21.24675;    13.10000;    29.39349;    13.10000;    19.45000;    25.80000
1996; 6;13;165;    19.41272;    11.40000;    27.42545;    11.40000;    17.95000;    24.50000
1996; 6;14;166;    19.35508;    10.70000;    28.01015;    10.70000;    18.25000;    25.80000
1996; 6;15;167;    20.82967;    12.00000;    29.65934;    12.00000;    20.10000;    28.20000
1996; 6;16;168;    22.16697;    14.10000;    30.23393;    14.10000;    21.55000;    29.00000
1996; 6;17;169;    21.60730;    12.90000;    30.31459;    12.90000;    21.00000;    29.10000
1996; 6;18;170;    21.30175;    11.70000;    30.90349;    11.70000;    20.85000;    30.00000
1996; 6;19;171;    21.23716;    13.10000;    29.37432;    13.10000;    21.20000;    29.30000
1996; 6;20;172;    20.37020;    14.90000;    25.84040;    14.90000;    19.90000;    24.90000
1996; 6;21;173;    14.95000;    12.90000;    17.00000;    12.90000;    14.95000;    17.00000
1996; 6;22;174;    14.35118;     8.10000;    20.60237;     8.10000;    14.00000;    19.90000
1996; 6;23;175;    15.07990;     9.50000;    20.65980;     9.50000;    14.80000;    20.10000
1996; 6;24;176;    14.97912;     8.80000;    21.15824;     8.80000;    14.80000;    20.80000
1996; 6;25;177;    15.30000;    10.90000;    19.70000;    10.90000;    15.30000;    19.70000
1996; 6;26;178;    18.70000;    13.50000;    23.90000;    13.50000;    18.70000;    23.90000
1996; 6;27;179;    17.32571;     8.40000;    26.25143;     8.40000;    17.15000;    25.90000
1996; 6;28;180;    18.56631;    10.60000;    26.53262;    10.60000;    18.35000;    26.10000
1996; 6;29;181;    18.60000;    14.30000;    22.90000;    14.30000;    18.60000;    22.90000
1996; 6;30;182;    15.45035;     6.90000;    24.00069;     6.90000;    15.00000;    23.10000
1996; 7; 1;183;    16.60000;    13.20000;    20.00000;    13.20000;    16.60000;    20.00000
1996; 7; 2;184;    15.55000;    10.40000;    20.70000;    10.40000;    15.55000;    20.70000
1996; 7; 3;185;    15.10000;     9.10000;    21.10000;     9.10000;    15.10000;    21.10000
1996; 7; 4;186;    19.05000;    15.70000;    22.40000;    15.70000;    19.05000;    22.40000
1996; 7; 5;187;    18.80000;    16.00000;    21.60000;    16.00000;    18.80000;    21.60000
1996; 7; 6;188;    14.21693;     9.80000;    18.63386;     9.80000;    14.20000;    18.60000
1996; 7; 7;189;    12.40000;    10.20000;    14.60000;    10.20000;    12.40000;    14.60000
1996; 7; 8;190;    15.29551;     8.50000;    22.09102;     8.50000;    15.20000;    21.90000
1996; 7; 9;191;    15.83393;     9.00000;    22.66786;     9.00000;    15.65000;    22.30000
1996; 7;10;192;    18.10000;    14.40000;    21.80000;    14.40000;    18.10000;    21.80000
1996; 7;11;193;    19.10302;    11.50000;    26.70605;    11.50000;    19.05000;    26.60000
1996; 7;12;194;    19.55000;    12.70000;    26.40000;    12.70000;    19.55000;    26.40000
1996; 7;13;195;    19.90000;    12.40000;    27.40000;    12.40000;    19.90000;    27.40000
1996; 7;14;196;    21.95000;    13.90000;    30.00000;    13.90000;    21.95000;    30.00000
1996; 7;15;197;    22.80000;    16.20000;    29.40000;    16.20000;    22.80000;    29.40000
1996; 7;16;198;    22.60000;    16.00000;    29.20000;    16.00000;    22.60000;    29.20000
1996; 7;17;199;    21.60000;    14.20000;    29.00000;    14.20000;    21.60000;    29.00000
1996; 7;18;200;    22.15000;    13.70000;    30.60000;    13.70000;    22.15000;    30.60000
1996; 7;19;201;    21.00000;    11.80000;    30.20000;    11.80000;    21.00000;    30.20000
1996; 7;20;202;    21.00000;    11.50000;    30.50000;    11.50000;    21.00000;    30.50000
1996; 7;21;203;    21.60000;    11.60000;    31.60000;    11.60000;    21.60000;    31.60000
1996; 7;22;204;    23.50000;    12.70000;    34.30000;    12.70000;    23.50000;    34.30000
1996; 7;23;205;    23.80000;    18.90000;    28.70000;    18.90000;    23.80000;    28.70000
1996; 7;24;206;    20.00000;    12.90000;    27.10000;    12.90000;    20.00000;    27.10000
1996; 7;25;207;    19.75000;    12.30000;    27.20000;    12.30000;    19.75000;    27.20000
1996; 7;26;208;    23.05000;    16.10000;    30.00000;    16.10000;    23.05000;    30.00000
1996; 7;27;209;    22.90000;    15.60000;    30.20000;    15.60000;    22.90000;    30.20000
1996; 7;28;210;    21.70000;    15.00000;    28.40000;    15.00000;    21.70000;    28.40000
1996; 7;29;211;    18.85000;    12.30000;    25.40000;    12.30000;    18.85000;    25.40000
1996; 7;30;212;    19.60000;    13.60000;    25.60000;    13.60000;    19.60000;    25.60000
1996; 7;31;213;    17.95000;     9.50000;    26.40000;     9.50000;    17.95000;    26.40000
1996; 8; 1;214;    19.95000;    12.30000;    27.60000;    12.30000;    19.95000;    27.60000
1996; 8; 2;215;    20.95000;    15.10000;    26.80000;    15.10000;    20.95000;    26.80000
1996; 8; 3;216;    19.65000;    12.10000;    27.20000;    12.10000;    19.65000;    27.20000
1996; 8; 4;217;    20.40000;    12.40000;    28.40000;    12.40000;    20.40000;    28.40000
1996; 8; 5;218;    16.80000;    10.10000;    23.50000;    10.10000;    16.80000;    23.50000
1996; 8; 6;219;    17.90000;    14.20000;    21.60000;    14.20000;    17.90000;    21.60000
1996; 8; 7;220;    17.20000;     9.60000;    24.80000;     9.60000;    17.20000;    24.80000
1996; 8; 8;221;    18.00000;     8.50000;    27.50000;     8.50000;    18.00000;    27.50000
1996; 8; 9;222;    19.35000;    11.70000;    27.00000;    11.70000;    19.35000;    27.00000
1996; 8;10;223;    17.30000;    15.00000;    19.60000;    15.00000;    17.30000;    19.60000
1996; 8;11;224;    18.30000;    15.10000;    21.50000;    15.10000;    18.30000;    21.50000
1996; 8;12;225;    16.75000;    11.60000;    21.90000;    11.60000;    16.75000;    21.90000
1996; 8;13;226;    18.70000;    13.10000;    24.30000;    13.10000;    18.70000;    24.30000
1996; 8;14;227;    18.25000;    11.10000;    25.40000;    11.10000;    18.25000;    25.40000
1996; 8;15;228;    19.55000;    12.80000;    26.30000;    12.80000;    19.55000;    26.30000
1996; 8;16;229;    20.30000;    12.30000;    28.30000;    12.30000;    20.30000;    28.30000
1996; 8;17;230;    20.80000;    12.30000;    29.30000;    12.30000;    20.80000;    29.30000
1996; 8;18;231;    21.45000;    12.30000;    30.60000;    12.30000;    21.45000;    30.60000
1996; 8;19;232;    22.35000;    13.20000;    31.50000;    13.20000;    22.35000;    31.50000
1996; 8;20;233;    21.10000;    17.70000;    24.50000;    17.70000;    21.10000;    24.50000
1996; 8;21;234;    15.95000;    13.20000;    18.70000;    13.20000;    15.95000;    18.70000
1996; 8;22;235;    18.05000;    11.30000;    24.80000;    11.30000;    18.05000;    24.80000
1996; 8;23;236;    19.55000;    15.30000;    23.80000;    15.30000;    19.55000;    23.80000
1996; 8;24;237;    18.00000;    13.60000;    22.40000;    13.60000;    18.00000;    22.40000
1996; 8;25;238;    17.35000;    12.30000;    22.40000;    12.30000;    17.35000;    22.40000
1996; 8;26;239;    16.85000;    10.90000;    22.80000;    10.90000;    16.85000;    22.80000
1996; 8;27;240;    17.10000;    12.30000;    21.90000;    12.30000;    17.10000;    21.90000
1996; 8;28;241;    15.05000;     8.60000;    21.50000;     8.60000;    15.05000;    21.50000
1996; 8;29;242;    14.80000;     9.10000;    20.50000;     9.10000;    14.80000;    20.50000
1996; 8;30;243;    15.25000;     9.50000;    21.00000;     9.50000;    15.25000;    21.00000
1996; 8;31;244;    15.70000;     9.00000;    22.40000;     9.00000;    15.70000;    22.40000
1996; 9; 1;245;    15.40000;     8.50000;    22.30000;     8.50000;    15.40000;    22.30000
1996; 9; 2;246;    15.60000;     8.60000;    22.60000;     8.60000;    15.60000;    22.60000
1996; 9; 3;247;    16.10000;     9.20000;    23.00000;     9.20000;    16.10000;    23.00000
1996; 9; 4;248;    18.45000;    10.90000;    26.00000;    10.90000;    18.45000;    26.00000
1996; 9; 5;249;    19.20000;    12.00000;    26.40000;    12.00000;    19.20000;    26.40000
1996; 9; 6;250;    18.10000;    10.10000;    26.10000;    10.10000;    18.10000;    26.10000
1996; 9; 7;251;    15.75000;     7.30000;    24.20000;     7.30000;    15.75000;    24.20000
1996; 9; 8;252;    15.05000;     7.50000;    22.60000;     7.50000;    15.05000;    22.60000
1996; 9; 9;253;    16.25000;    10.60000;    21.90000;    10.60000;    16.25000;    21.90000
1996; 9;10;254;    14.70000;     7.00000;    22.40000;     7.00000;    14.70000;    22.40000
1996; 9;11;255;    15.40000;     8.10000;    22.70000;     8.10000;    15.40000;    22.70000
1996; 9;12;256;    14.15000;     7.10000;    21.20000;     7.10000;    14.15000;    21.20000
1996; 9;13;257;    14.45000;     9.50000;    19.40000;     9.50000;    14.45000;    19.40000
1996; 9;14;258;    12.10000;     4.10000;    20.10000;     4.10000;    12.10000;    20.10000
1996; 9;15;259;    13.90000;     5.70000;    22.10000;     5.70000;    13.90000;    22.10000
1996; 9;16;260;    15.65000;     8.20000;    23.10000;     8.20000;    15.65000;    23.10000
1996; 9;17;261;    15.35000;     6.80000;    23.90000;     6.80000;    15.35000;    23.90000
1996; 9;18;262;    13.00000;     8.00000;    18.00000;     8.00000;    13.00000;    18.00000
1996; 9;19;263;    10.60000;     9.60000;    11.60000;     9.60000;    10.60000;    11.60000
1996; 9;20;264;    13.30000;     8.10000;    18.50000;     8.10000;    13.30000;    18.50000
1996; 9;21;265;    14.60000;     9.90000;    19.30000;     9.90000;    14.60000;    19.30000
1996; 9;22;266;    12.35000;     8.40000;    16.30000;     8.40000;    12.35000;    16.30000
1996; 9;23;267;    13.30000;     8.80000;    17.80000;     8.80000;    13.30000;    17.80000
1996; 9;24;268;    12.40000;     4.50000;    20.30000;     4.50000;    12.40000;    20.30000
1996; 9;25;269;    15.30000;    11.80000;    18.80000;    11.80000;    15.30000;    18.80000
1996; 9;26;270;    14.00000;     9.20000;    18.80000;     9.20000;    14.00000;    18.80000
1996; 9;27;271;    16.80000;    13.00000;    20.60000;    13.00000;    16.80000;    20.60000
1996; 9;28;272;    12.90000;     6.20000;    19.60000;     6.20000;    12.90000;    19.60000
1996; 9;29;273;    14.05000;     6.10000;    22.00000;     6.10000;    14.05000;    22.00000
1996; 9;30;274;    17.70000;    11.30000;    24.10000;    11.30000;    17.70000;    24.10000
1996;10; 1;275;    13.35000;    10.80000;    15.90000;    10.80000;    13.35000;    15.90000
1996;10; 2;276;    12.35000;     8.80000;    15.90000;     8.80000;    12.35000;    15.90000
1996;10; 3;277;    11.30000;     4.00000;    18.60000;     4.00000;    11.30000;    18.60000
1996;10; 4;278;    13.05000;     9.90000;    16.20000;     9.90000;    13.05000;    16.20000
1996;10; 5;279;    11.10000;     6.50000;    15.70000;     6.50000;    11.10000;    15.70000
1996;10; 6;280;    10.00000;     5.20000;    14.80000;     5.20000;    10.00000;    14.80000
1996;10; 7;281;     9.65000;     3.80000;    15.50000;     3.80000;     9.65000;    15.50000
1996;10; 8;282;    11.95000;     7.50000;    16.40000;     7.50000;    11.95000;    16.40000
1996;10; 9;283;    14.30000;    11.20000;    17.40000;    11.20000;    14.30000;    17.40000
1996;10;10;284;    10.10000;     6.70000;    13.50000;     6.70000;    10.10000;    13.50000
1996;10;11;285;    10.95000;     5.40000;    16.50000;     5.40000;    10.95000;    16.50000
1996;10;12;286;    11.95000;     3.80000;    20.10000;     3.80000;    11.95000;    20.10000
1996;10;13;287;    17.50000;    13.50000;    21.50000;    13.50000;    17.50000;    21.50000
1996;10;14;288;    15.90000;    13.70000;    18.10000;    13.70000;    15.90000;    18.10000
1996;10;15;289;    13.95000;     9.80000;    18.10000;     9.80000;    13.95000;    18.10000
1996;10;16;290;     9.80000;     3.60000;    16.00000;     3.60000;     9.80000;    16.00000
1996;10;17;291;    10.85000;     6.80000;    14.90000;     6.80000;    10.85000;    14.90000
1996;10;18;292;    10.55000;     3.50000;    17.60000;     3.50000;    10.55000;    17.60000
1996;10;19;293;    14.35000;    11.90000;    16.80000;    11.90000;    14.35000;    16.80000
1996;10;20;294;    13.20000;     7.90000;    18.50000;     7.90000;    13.20000;    18.50000
1996;10;21;295;    16.70000;    13.60000;    19.80000;    13.60000;    16.70000;    19.80000
1996;10;22;296;    13.90000;     9.50000;    18.30000;     9.50000;    13.90000;    18.30000
1996;10;23;297;    15.25000;     6.90000;    23.60000;     6.90000;    15.25000;    23.60000
1996;10;24;298;    15.25000;     9.00000;    21.50000;     9.00000;    15.25000;    21.50000
1996;10;25;299;    15.10000;    11.50000;    18.70000;    11.50000;    15.10000;    18.70000
1996;10;26;300;    12.40000;     9.00000;    15.80000;     9.00000;    12.40000;    15.80000
1996;10;27;301;    13.00000;     8.30000;    17.70000;     8.30000;    13.00000;    17.70000
1996;10;28;302;    12.45000;     9.00000;    15.90000;     9.00000;    12.45000;    15.90000
1996;10;29;303;    12.85000;    10.80000;    14.90000;    10.80000;    12.85000;    14.90000
1996;10;30;304;     8.00000;     1.80000;    14.20000;     1.80000;     8.00000;    14.20000
1996;10;31;305;     7.15000;     0.50000;    13.80000;     0.50000;     7.15000;    13.80000
1996;11; 1;306;    13.35000;    11.80000;    14.90000;    11.80000;    13.35000;    14.90000
1996;11; 2;307;    12.60000;    11.10000;    14.10000;    11.10000;    12.60000;    14.10000
1996;11; 3;308;    12.20000;    10.40000;    14.00000;    10.40000;    12.20000;    14.00000
1996;11; 4;309;    11.40000;     9.90000;    12.90000;     9.90000;    11.40000;    12.90000
1996;11; 5;310;    10.70000;     7.40000;    14.00000;     7.40000;    10.70000;    14.00000
1996;11; 6;311;    10.80000;     6.10000;    15.50000;     6.10000;    10.80000;    15.50000
1996;11; 7;312;    13.20000;    10.50000;    15.90000;    10.50000;    13.20000;    15.90000
1996;11; 8;313;     9.90000;     5.60000;    14.20000;     5.60000;     9.90000;    14.20000
1996;11; 9;314;     8.05000;     2.50000;    13.60000;     2.50000;     8.05000;    13.60000
1996;11;10;315;     7.40000;     4.90000;     9.90000;     4.90000;     7.40000;     9.90000
1996;11;11;316;     9.50000;     7.50000;    11.50000;     7.50000;     9.50000;    11.50000
1996;11;12;317;     9.95000;     7.30000;    12.60000;     7.30000;     9.95000;    12.60000
1996;11;13;318;     8.90000;     6.90000;    10.90000;     6.90000;     8.90000;    10.90000
1996;11;14;319;     4.90000;     1.80000;     8.00000;     1.80000;     4.90000;     8.00000
1996;11;15;320;     3.30000;     2.10000;     4.50000;     2.10000;     3.30000;     4.50000
1996;11;16;321;     4.05000;     2.50000;     5.60000;     2.50000;     4.05000;     5.60000
1996;11;17;322;     3.85000;     2.50000;     5.20000;     2.50000;     3.85000;     5.20000
1996;11;18;323;     5.20000;     2.30000;     8.10000;     2.30000;     5.20000;     8.10000
1996;11;19;324;     4.45000;     0.40000;     8.50000;     0.40000;     4.45000;     8.50000
1996;11;20;325;     6.95000;     4.60000;     9.30000;     4.60000;     6.95000;     9.30000
1996;11;21;326;     4.00000;     0.10000;     7.90000;     0.10000;     4.00000;     7.90000
1996;11;22;327;     1.25000;    -0.50000;     3.00000;    -0.50000;     1.25000;     3.00000
1996;11;23;328;     3.30000;    -1.70000;     8.30000;    -1.70000;     3.30000;     8.30000
1996;11;24;329;     4.80000;    -1.50000;    11.10000;    -1.50000;     4.80000;    11.10000
1996;11;25;330;     8.45000;     4.30000;    12.60000;     4.30000;     8.45000;    12.60000
1996;11;26;331;     6.75000;     3.80000;     9.70000;     3.80000;     6.75000;     9.70000
1996;11;27;332;     7.70000;     3.10000;    12.30000;     3.10000;     7.70000;    12.30000
1996;11;28;333;     3.90000;     0.40000;     7.40000;     0.40000;     3.90000;     7.40000
1996;11;29;334;     5.25000;    -1.30000;    11.80000;    -1.30000;     5.25000;    11.80000
1996;11;30;335;    10.70000;     9.20000;    12.20000;     9.20000;    10.70000;    12.20000
1996;12; 1;336;     7.45000;     3.20000;    11.70000;     3.20000;     7.45000;    11.70000
1996;12; 2;337;     7.40000;     4.70000;    10.10000;     4.70000;     7.40000;    10.10000
1996;12; 3;338;     7.70000;     5.50000;     9.90000;     5.50000;     7.70000;     9.90000
1996;12; 4;339;     6.75000;     6.20000;     7.30000;     6.20000;     6.75000;     7.30000
1996;12; 5;340;     6.25000;     5.60000;     6.90000;     5.60000;     6.25000;     6.90000
1996;12; 6;341;     9.25000;     6.00000;    12.50000;     6.00000;     9.25000;    12.50000
1996;12; 7;342;     8.35000;     4.70000;    12.00000;     4.70000;     8.35000;    12.00000
1996;12; 8;343;     4.50000;     1.30000;     7.70000;     1.30000;     4.50000;     7.70000
1996;12; 9;344;     0.15000;    -0.80000;     1.10000;    -0.80000;     0.15000;     1.10000
1996;12;10;345;     3.35000;    -0.40000;     7.10000;    -0.40000;     3.35000;     7.10000
1996;12;11;346;     0.50000;    -0.70000;     1.70000;    -0.70000;     0.50000;     1.70000
1996;12;12;347;     6.00000;     0.50000;    11.50000;     0.50000;     6.00000;    11.50000
1996;12;13;348;     8.80000;     7.10000;    10.50000;     7.10000;     8.80000;    10.50000
1996;12;14;349;     2.85000;     2.40000;     3.30000;     2.40000;     2.85000;     3.30000
1996;12;15;350;     0.70000;    -3.50000;     4.90000;    -3.50000;     0.70000;     4.90000
1996;12;16;351;     3.45000;    -0.40000;     7.30000;    -0.40000;     3.45000;     7.30000
1996;12;17;352;     7.40000;     2.10000;    12.70000;     2.10000;     7.40000;    12.70000
1996;12;18;353;     9.70000;     6.30000;    13.10000;     6.30000;     9.70000;    13.10000
1996;12;19;354;    10.80000;     9.00000;    12.60000;     9.00000;    10.80000;    12.60000
1996;12;20;355;     9.35000;     7.80000;    10.90000;     7.80000;     9.35000;    10.90000
1996;12;21;356;     5.95000;     4.10000;     7.80000;     4.10000;     5.95000;     7.80000
1996;12;22;357;     7.60000;     6.10000;     9.10000;     6.10000;     7.60000;     9.10000
1996;12;23;358;     7.50000;     5.60000;     9.40000;     5.60000;     7.50000;     9.40000
1996;12;24;359;     5.60000;     3.20000;     8.00000;     3.20000;     5.60000;     8.00000
1996;12;25;360;     2.00000;    -1.00000;     5.00000;    -1.00000;     2.00000;     5.00000
